wavelength,intensity
1.86E+02,-0.242
1.87E+02,2.53
1.87E+02,-0.0109
1.88E+02,-0.0128
1.88E+02,-0.0133
1.88E+02,-0.0146
1.89E+02,-0.0152
1.89E+02,-0.0136
1.90E+02,-0.0104
1.90E+02,-0.00535
1.91E+02,-0.008
1.91E+02,-0.0125
1.92E+02,0.00421
1.92E+02,-0.00641
1.93E+02,0.000761
1.93E+02,0.00262
1.94E+02,0.00474
1.94E+02,0.00925
1.95E+02,0.0114
1.95E+02,0.0204
1.95E+02,0.018
1.96E+02,0.0196
1.96E+02,0.0145
1.97E+02,0.023
1.97E+02,0.0254
1.98E+02,0.0235
1.98E+02,0.0212
1.99E+02,0.0346
1.99E+02,0.0299
2.00E+02,0.0288
2.00E+02,0.0291
2.01E+02,0.032
2.01E+02,0.0288
2.01E+02,0.0354
2.02E+02,0.0333
2.02E+02,0.0328
2.03E+02,0.0349
2.03E+02,0.036
2.04E+02,0.0328
2.04E+02,0.0301
2.05E+02,0.0294
2.05E+02,0.0383
2.06E+02,0.0288
2.06E+02,0.0304
2.07E+02,0.0317
2.07E+02,0.0341
2.08E+02,0.036
2.08E+02,0.037
2.08E+02,0.0341
2.09E+02,0.0299
2.09E+02,0.0312
2.10E+02,0.0272
2.10E+02,0.0294
2.11E+02,0.0175
2.11E+02,0.0291
2.12E+02,0.0291
2.12E+02,0.032
2.13E+02,0.0389
2.13E+02,0.037
2.14E+02,0.0307
2.14E+02,0.0259
2.14E+02,0.018
2.15E+02,0.0278
2.15E+02,0.0251
2.16E+02,0.0278
2.16E+02,0.0333
2.17E+02,0.0294
2.17E+02,0.0301
2.18E+02,0.0299
2.18E+02,0.0301
2.19E+02,0.0227
2.19E+02,0.0272
2.20E+02,0.0296
2.20E+02,0.0307
2.20E+02,0.0275
2.21E+02,0.0291
2.21E+02,0.0304
2.22E+02,0.0304
2.22E+02,0.0309
2.23E+02,0.0294
2.23E+02,0.0275
2.24E+02,0.0283
2.24E+02,0.0325
2.25E+02,0.0323
2.25E+02,0.0389
2.26E+02,0.0272
2.26E+02,0.0294
2.26E+02,0.0299
2.27E+02,0.0312
2.27E+02,0.0309
2.28E+02,0.0331
2.28E+02,0.0272
2.29E+02,0.0333
2.29E+02,0.036
2.30E+02,0.036
2.30E+02,0.0307
2.31E+02,0.0331
2.31E+02,0.0264
2.32E+02,0.0362
2.32E+02,0.0331
2.32E+02,0.0394
2.33E+02,0.0323
2.33E+02,0.0309
2.34E+02,0.0286
2.34E+02,0.0259
2.35E+02,0.0286
2.35E+02,0.0333
2.36E+02,0.0312
2.36E+02,0.0315
2.37E+02,0.037
2.37E+02,0.0283
2.37E+02,0.0328
2.38E+02,0.0312
2.38E+02,0.0346
2.39E+02,0.0331
2.39E+02,0.0346
2.40E+02,0.032
2.40E+02,0.0349
2.41E+02,0.0389
2.41E+02,0.0323
2.42E+02,0.0251
2.42E+02,0.0238
2.43E+02,0.0357
2.43E+02,0.0383
2.43E+02,0.0312
2.44E+02,0.0346
2.44E+02,0.0344
2.45E+02,0.0346
2.45E+02,0.0349
2.46E+02,0.0259
2.46E+02,0.0373
2.47E+02,0.0296
2.47E+02,0.0367
2.48E+02,0.0362
2.48E+02,0.0286
2.49E+02,0.0259
2.49E+02,0.0251
2.49E+02,0.0336
2.50E+02,0.0317
2.50E+02,0.0389
2.51E+02,0.0323
2.51E+02,0.0309
2.52E+02,0.0331
2.52E+02,0.0294
2.53E+02,0.0325
2.53E+02,0.0328
2.54E+02,0.0249
2.54E+02,0.027
2.54E+02,0.0309
2.55E+02,0.0283
2.55E+02,0.0331
2.56E+02,0.0344
2.56E+02,0.0296
2.57E+02,0.0344
2.57E+02,0.0315
2.58E+02,0.0365
2.58E+02,0.0323
2.59E+02,0.0346
2.59E+02,0.0307
2.60E+02,0.032
2.60E+02,0.0286
2.60E+02,0.028
2.61E+02,0.0357
2.61E+02,0.0283
2.62E+02,0.036
2.62E+02,0.0336
2.63E+02,0.0338
2.63E+02,0.0357
2.64E+02,0.0283
2.64E+02,0.0399
2.65E+02,0.0357
2.65E+02,0.0283
2.65E+02,0.0309
2.66E+02,0.0331
2.66E+02,0.0288
2.67E+02,0.032
2.67E+02,0.0304
2.68E+02,0.0328
2.68E+02,0.027
2.69E+02,0.0301
2.69E+02,0.0296
2.70E+02,0.0278
2.70E+02,0.0341
2.70E+02,0.0381
2.71E+02,0.0275
2.71E+02,0.0362
2.72E+02,0.0349
2.72E+02,0.0418
2.73E+02,0.0341
2.73E+02,0.0341
2.74E+02,0.0354
2.74E+02,0.0309
2.75E+02,0.0344
2.75E+02,0.0344
2.76E+02,0.0381
2.76E+02,0.037
2.76E+02,0.037
2.77E+02,0.0344
2.77E+02,0.0307
2.78E+02,0.0367
2.78E+02,0.0331
2.79E+02,0.0262
2.79E+02,0.0333
2.80E+02,0.0352
2.80E+02,0.0299
2.81E+02,0.0323
2.81E+02,0.0346
2.81E+02,0.0365
2.82E+02,0.0301
2.82E+02,0.0254
2.83E+02,0.0333
2.83E+02,0.0272
2.84E+02,0.0249
2.84E+02,0.0396
2.85E+02,0.0309
2.85E+02,0.0354
2.86E+02,0.0294
2.86E+02,0.0391
2.86E+02,0.036
2.87E+02,0.0286
2.87E+02,0.0333
2.88E+02,0.0352
2.88E+02,0.0352
2.89E+02,0.0404
2.89E+02,0.0325
2.90E+02,0.0323
2.90E+02,0.0286
2.91E+02,0.0439
2.91E+02,0.0402
2.91E+02,0.032
2.92E+02,0.0291
2.92E+02,0.0288
2.93E+02,0.0249
2.93E+02,0.0283
2.94E+02,0.0328
2.94E+02,0.0344
2.95E+02,0.0328
2.95E+02,0.0354
2.96E+02,0.0336
2.96E+02,0.0336
2.96E+02,0.0317
2.97E+02,0.0373
2.97E+02,0.037
2.98E+02,0.0315
2.98E+02,0.0346
2.99E+02,0.0299
2.99E+02,0.0349
3.00E+02,0.032
3.00E+02,0.0399
3.01E+02,0.0325
3.01E+02,0.0381
3.01E+02,0.0262
3.02E+02,0.0354
3.02E+02,0.0357
3.03E+02,0.0288
3.03E+02,0.0325
3.04E+02,0.0389
3.04E+02,0.0375
3.05E+02,0.0341
3.05E+02,0.037
3.05E+02,0.0315
3.06E+02,0.0362
3.06E+02,0.0317
3.07E+02,0.0423
3.07E+02,0.0341
3.08E+02,0.0278
3.08E+02,0.037
3.09E+02,0.0367
3.09E+02,0.0352
3.10E+02,0.0381
3.10E+02,0.037
3.10E+02,0.0278
3.11E+02,0.0315
3.11E+02,0.0375
3.12E+02,0.0304
3.12E+02,0.0457
3.13E+02,0.0307
3.13E+02,0.0294
3.14E+02,0.0354
3.14E+02,0.0341
3.15E+02,0.0381
3.15E+02,0.0373
3.15E+02,0.0357
3.16E+02,0.0375
3.16E+02,0.0312
3.17E+02,0.032
3.17E+02,0.0312
3.18E+02,0.0389
3.18E+02,0.0375
3.19E+02,0.0296
3.19E+02,0.0291
3.19E+02,0.0354
3.20E+02,0.0425
3.20E+02,0.0354
3.21E+02,0.0373
3.21E+02,0.036
3.22E+02,0.0381
3.22E+02,0.0296
3.23E+02,0.037
3.23E+02,0.0301
3.24E+02,0.0362
3.24E+02,0.0315
3.24E+02,0.0331
3.25E+02,0.0299
3.25E+02,0.0412
3.26E+02,0.0349
3.26E+02,0.0288
3.27E+02,0.0444
3.27E+02,0.0375
3.28E+02,0.0272
3.28E+02,0.0352
3.29E+02,0.037
3.29E+02,0.0336
3.29E+02,0.0354
3.30E+02,0.0367
3.30E+02,0.0333
3.31E+02,0.0341
3.31E+02,0.0346
3.32E+02,0.0328
3.32E+02,0.0378
3.33E+02,0.0312
3.33E+02,0.0349
3.33E+02,0.0315
3.34E+02,0.0394
3.34E+02,0.0341
3.35E+02,0.0354
3.35E+02,0.0341
3.36E+02,0.0315
3.36E+02,0.0407
3.37E+02,0.0333
3.37E+02,0.0412
3.38E+02,0.0391
3.38E+02,0.0462
3.38E+02,0.0476
3.39E+02,0.0333
3.39E+02,0.0352
3.40E+02,0.0383
3.40E+02,0.0346
3.41E+02,0.0341
3.41E+02,0.0333
3.42E+02,0.0317
3.42E+02,0.0391
3.42E+02,0.0399
3.43E+02,0.0386
3.43E+02,0.0365
3.44E+02,0.0404
3.44E+02,0.0367
3.45E+02,0.0399
3.45E+02,0.0323
3.46E+02,0.037
3.46E+02,0.0386
3.46E+02,0.0309
3.47E+02,0.0362
3.47E+02,0.0328
3.48E+02,0.0304
3.48E+02,0.0344
3.49E+02,0.0391
3.49E+02,0.037
3.50E+02,0.0378
3.50E+02,0.0389
3.51E+02,0.0375
3.51E+02,0.0383
3.51E+02,0.032
3.52E+02,0.0452
3.52E+02,0.0336
3.53E+02,0.0391
3.53E+02,0.0338
3.54E+02,0.036
3.54E+02,0.0357
3.55E+02,0.0378
3.55E+02,0.0404
3.55E+02,0.0309
3.56E+02,0.0367
3.56E+02,0.0394
3.57E+02,0.0294
3.57E+02,0.0328
3.58E+02,0.0349
3.58E+02,0.0341
3.59E+02,0.0396
3.59E+02,0.0394
3.59E+02,0.0346
3.60E+02,0.0373
3.60E+02,0.036
3.61E+02,0.0391
3.61E+02,0.0328
3.62E+02,0.0367
3.62E+02,0.0391
3.63E+02,0.0441
3.63E+02,0.032
3.63E+02,0.032
3.64E+02,0.0352
3.64E+02,0.0373
3.65E+02,0.0389
3.65E+02,0.0454
3.66E+02,0.0301
3.66E+02,0.0301
3.67E+02,0.0391
3.67E+02,0.0383
3.67E+02,0.0357
3.68E+02,0.0338
3.68E+02,0.036
3.69E+02,0.0346
3.69E+02,0.0433
3.70E+02,0.0352
3.70E+02,0.0336
3.71E+02,0.0394
3.71E+02,0.041
3.72E+02,0.0341
3.72E+02,0.0375
3.72E+02,0.0394
3.73E+02,0.0349
3.73E+02,0.0389
3.74E+02,0.0444
3.74E+02,0.0312
3.75E+02,0.037
3.75E+02,0.0336
3.76E+02,0.032
3.76E+02,0.0367
3.76E+02,0.0396
3.77E+02,0.0394
3.77E+02,0.041
3.78E+02,0.0396
3.78E+02,0.0367
3.79E+02,0.0428
3.79E+02,0.0333
3.80E+02,0.0378
3.80E+02,0.0354
3.80E+02,0.0389
3.81E+02,0.0317
3.81E+02,0.0254
3.82E+02,0.0362
3.82E+02,0.0349
3.83E+02,0.0367
3.83E+02,0.0346
3.84E+02,0.0389
3.84E+02,0.0328
3.84E+02,0.0394
3.85E+02,0.0404
3.85E+02,0.0383
3.86E+02,0.0394
3.86E+02,0.0431
3.87E+02,0.0407
3.87E+02,0.0344
3.88E+02,0.028
3.88E+02,0.036
3.88E+02,0.0357
3.89E+02,0.0418
3.89E+02,0.0365
3.90E+02,0.0375
3.90E+02,0.0262
3.91E+02,0.032
3.91E+02,0.0412
3.91E+02,0.0317
3.92E+02,0.0428
3.92E+02,0.0394
3.93E+02,0.0349
3.93E+02,0.0352
3.94E+02,0.0362
3.94E+02,0.0433
3.95E+02,0.0328
3.95E+02,0.0304
3.95E+02,0.0354
3.96E+02,0.0381
3.96E+02,0.0489
3.97E+02,0.0309
3.97E+02,0.0346
3.98E+02,0.0338
3.98E+02,0.0346
3.99E+02,0.0291
3.99E+02,0.0433
3.99E+02,0.0357
4.00E+02,0.042
4.00E+02,0.0341
4.01E+02,0.036
4.01E+02,0.0341
4.02E+02,0.032
4.02E+02,0.0336
4.03E+02,0.0312
4.03E+02,0.0457
4.03E+02,0.0354
4.04E+02,0.0333
4.04E+02,0.0389
4.05E+02,0.0381
4.05E+02,0.037
4.06E+02,0.0386
4.06E+02,0.0391
4.07E+02,0.0383
4.07E+02,0.0436
4.07E+02,0.0336
4.08E+02,0.037
4.08E+02,0.0336
4.09E+02,0.0386
4.09E+02,0.0375
4.10E+02,0.0294
4.10E+02,0.0346
4.11E+02,0.0362
4.11E+02,0.0307
4.11E+02,0.0365
4.12E+02,0.032
4.12E+02,0.0404
4.13E+02,0.0323
4.13E+02,0.0346
4.14E+02,0.0396
4.14E+02,0.0254
4.14E+02,0.0275
4.15E+02,0.0381
4.15E+02,0.0304
4.16E+02,0.0439
4.16E+02,0.0367
4.17E+02,0.0331
4.17E+02,0.0309
4.18E+02,0.0346
4.18E+02,0.037
4.18E+02,0.042
4.19E+02,0.0254
4.19E+02,0.0333
4.20E+02,0.0304
4.20E+02,0.0267
4.21E+02,0.0425
4.21E+02,0.041
4.22E+02,0.0333
4.22E+02,0.0357
4.22E+02,0.0312
4.23E+02,0.0307
4.23E+02,0.0373
4.24E+02,0.0338
4.24E+02,0.0362
4.25E+02,0.0328
4.25E+02,0.0235
4.25E+02,0.0412
4.26E+02,0.0394
4.26E+02,0.0317
4.27E+02,0.0383
4.27E+02,0.0312
4.28E+02,0.0325
4.28E+02,0.0317
4.29E+02,0.0352
4.29E+02,0.0317
4.29E+02,0.0396
4.30E+02,0.0367
4.30E+02,0.0288
4.31E+02,0.0344
4.31E+02,0.0331
4.32E+02,0.0338
4.32E+02,0.0346
4.32E+02,0.0307
4.33E+02,0.0307
4.33E+02,0.0338
4.34E+02,0.041
4.34E+02,0.0389
4.35E+02,0.0367
4.35E+02,0.0346
4.36E+02,0.0399
4.36E+02,0.0389
4.36E+02,0.0357
4.37E+02,0.0331
4.37E+02,0.0425
4.38E+02,0.0399
4.38E+02,0.0383
4.39E+02,0.0362
4.39E+02,0.0381
4.40E+02,0.0391
4.40E+02,0.0378
4.40E+02,0.0407
4.41E+02,0.0454
4.41E+02,0.0325
4.42E+02,0.0389
4.42E+02,0.041
4.43E+02,0.0407
4.43E+02,0.0404
4.43E+02,0.0383
4.44E+02,0.0373
4.44E+02,0.0341
4.45E+02,0.0354
4.45E+02,0.0333
4.46E+02,0.0344
4.46E+02,0.0407
4.47E+02,0.0349
4.47E+02,0.0307
4.47E+02,0.0333
4.48E+02,0.0354
4.48E+02,0.0396
4.49E+02,0.0352
4.49E+02,0.0346
4.50E+02,0.0338
4.50E+02,0.0402
4.50E+02,0.0386
4.51E+02,0.0428
4.51E+02,0.0294
4.52E+02,0.0288
4.52E+02,0.0399
4.53E+02,0.0307
4.53E+02,0.0317
4.53E+02,0.0299
4.54E+02,0.0386
4.54E+02,0.0394
4.55E+02,0.0373
4.55E+02,0.0404
4.56E+02,0.0354
4.56E+02,0.036
4.57E+02,0.037
4.57E+02,0.0407
4.57E+02,0.0402
4.58E+02,0.0402
4.58E+02,0.0341
4.59E+02,0.0357
4.59E+02,0.036
4.60E+02,0.0378
4.60E+02,0.041
4.60E+02,0.0381
4.61E+02,0.0362
4.61E+02,0.0394
4.62E+02,0.0389
4.62E+02,0.0373
4.63E+02,0.0367
4.63E+02,0.0402
4.64E+02,0.0338
4.64E+02,0.0325
4.64E+02,0.0428
4.65E+02,0.0415
4.65E+02,0.0288
4.66E+02,0.0336
4.66E+02,0.0357
4.67E+02,0.0354
4.67E+02,0.0375
4.67E+02,0.0344
4.68E+02,0.0362
4.68E+02,0.0457
4.69E+02,0.0354
4.69E+02,0.0317
4.70E+02,0.0449
4.70E+02,0.0375
4.70E+02,0.0391
4.71E+02,0.036
4.71E+02,0.032
4.72E+02,0.0344
4.72E+02,0.037
4.73E+02,0.0362
4.73E+02,0.0346
4.73E+02,0.0323
4.74E+02,0.0286
4.74E+02,0.0367
4.75E+02,0.036
4.75E+02,0.042
4.76E+02,0.0338
4.76E+02,0.032
4.77E+02,0.0389
4.77E+02,0.0357
4.77E+02,0.0341
4.78E+02,0.0341
4.78E+02,0.0354
4.79E+02,0.0325
4.79E+02,0.0394
4.80E+02,0.0344
4.80E+02,0.0291
4.80E+02,0.0412
4.81E+02,0.0394
4.81E+02,0.0349
4.82E+02,0.0354
4.82E+02,0.0301
4.83E+02,0.041
4.83E+02,0.0423
4.83E+02,0.0346
4.84E+02,0.0344
4.84E+02,0.0338
4.85E+02,0.0404
4.85E+02,0.0309
4.86E+02,0.041
4.86E+02,0.0344
4.86E+02,0.0394
4.87E+02,0.0333
4.87E+02,0.0338
4.88E+02,0.0441
4.88E+02,0.0349
4.89E+02,0.0365
4.89E+02,0.0365
4.89E+02,0.0452
4.90E+02,0.0294
4.90E+02,0.0373
4.91E+02,0.0338
4.91E+02,0.0338
4.92E+02,0.032
4.92E+02,0.0383
4.93E+02,0.037
4.93E+02,0.0272
4.93E+02,0.0315
4.94E+02,0.0344
4.94E+02,0.037
4.95E+02,0.032
4.95E+02,0.0341
4.96E+02,0.0362
4.96E+02,0.0354
4.96E+02,0.0389
4.97E+02,0.036
4.97E+02,0.036
4.98E+02,0.037
4.98E+02,0.0349
4.99E+02,0.0346
4.99E+02,0.0383
4.99E+02,0.0357
5.00E+02,0.0457
5.00E+02,0.0362
5.01E+02,0.0352
5.01E+02,0.0375
5.02E+02,0.0315
5.02E+02,0.0344
5.02E+02,0.037
5.03E+02,0.0349
5.03E+02,0.0381
5.04E+02,0.0447
5.04E+02,0.0381
5.05E+02,0.0331
5.05E+02,0.0325
5.05E+02,0.0373
5.06E+02,0.036
5.06E+02,0.0357
5.07E+02,0.0286
5.07E+02,0.0404
5.08E+02,0.0354
5.08E+02,0.0362
5.08E+02,0.0483
5.09E+02,0.0352
5.09E+02,0.0338
5.10E+02,0.0375
5.10E+02,0.0338
5.11E+02,0.0362
5.11E+02,0.0328
5.11E+02,0.0373
5.12E+02,0.0412
5.12E+02,0.0341
5.13E+02,0.0381
5.13E+02,0.0315
5.14E+02,0.0344
5.14E+02,0.042
5.14E+02,0.0391
5.15E+02,0.0346
5.15E+02,0.0399
5.16E+02,0.0354
5.16E+02,0.0346
5.17E+02,0.0294
5.17E+02,0.0357
5.17E+02,0.0431
5.18E+02,0.0286
5.18E+02,0.0404
5.19E+02,0.0346
5.19E+02,0.0378
5.20E+02,0.041
5.20E+02,0.0315
5.20E+02,0.037
5.21E+02,0.0336
5.21E+02,0.0325
5.22E+02,0.0367
5.22E+02,0.0304
5.23E+02,0.0373
5.23E+02,0.0436
5.23E+02,0.0383
5.24E+02,0.0341
5.24E+02,0.0441
5.25E+02,0.0344
5.25E+02,0.0328
5.26E+02,0.0375
5.26E+02,0.0365
5.26E+02,0.0357
5.27E+02,0.0428
5.27E+02,0.0436
5.28E+02,0.037
5.28E+02,0.0344
5.29E+02,0.0352
5.29E+02,0.0391
5.29E+02,0.0396
5.30E+02,0.0341
5.30E+02,0.0323
5.31E+02,0.0428
5.31E+02,0.0383
5.32E+02,0.0312
5.32E+02,0.0338
5.32E+02,0.0317
5.33E+02,0.0349
5.33E+02,0.0312
5.34E+02,0.0317
5.34E+02,0.0352
5.35E+02,0.0367
5.35E+02,0.0378
5.35E+02,0.0396
5.36E+02,0.0341
5.36E+02,0.0291
5.37E+02,0.0352
5.37E+02,0.032
5.38E+02,0.0386
5.38E+02,0.0301
5.38E+02,0.0407
5.39E+02,0.0301
5.39E+02,0.0386
5.40E+02,0.0338
5.40E+02,0.0386
5.41E+02,0.0344
5.41E+02,0.0333
5.41E+02,0.0444
5.42E+02,0.0304
5.42E+02,0.0296
5.43E+02,0.0402
5.43E+02,0.0418
5.43E+02,0.0346
5.44E+02,0.0367
5.44E+02,0.0404
5.45E+02,0.0352
5.45E+02,0.037
5.46E+02,0.0315
5.46E+02,0.0425
5.46E+02,0.0375
5.47E+02,0.0365
5.47E+02,0.032
5.48E+02,0.0362
5.48E+02,0.0386
5.49E+02,0.0365
5.49E+02,0.0338
5.49E+02,0.0439
5.50E+02,0.0375
5.50E+02,0.0454
5.51E+02,0.037
5.51E+02,0.0357
5.52E+02,0.0296
5.52E+02,0.0365
5.52E+02,0.0304
5.53E+02,0.0309
5.53E+02,0.0362
5.54E+02,0.0383
5.54E+02,0.0423
5.55E+02,0.0299
5.55E+02,0.0381
5.55E+02,0.0375
5.56E+02,0.0381
5.56E+02,0.0399
5.57E+02,0.0312
5.57E+02,0.0394
5.57E+02,0.0344
5.58E+02,0.0373
5.58E+02,0.0367
5.59E+02,0.0375
5.59E+02,0.0312
5.60E+02,0.0375
5.60E+02,0.0381
5.60E+02,0.0367
5.61E+02,0.0354
5.61E+02,0.036
5.62E+02,0.0344
5.62E+02,0.0325
5.63E+02,0.0415
5.63E+02,0.0349
5.63E+02,0.0325
5.64E+02,0.0323
5.64E+02,0.0378
5.65E+02,0.0275
5.65E+02,0.0431
5.66E+02,0.0394
5.66E+02,0.0291
5.66E+02,0.0336
5.67E+02,0.0346
5.67E+02,0.0331
5.68E+02,0.0275
5.68E+02,0.0375
5.68E+02,0.0309
5.69E+02,0.0389
5.69E+02,0.0465
5.70E+02,0.0389
5.70E+02,0.0344
5.71E+02,0.0354
5.71E+02,0.0294
5.71E+02,0.0304
5.72E+02,0.0304
5.72E+02,0.036
5.73E+02,0.0375
5.73E+02,0.0267
5.74E+02,0.0383
5.74E+02,0.0362
5.74E+02,0.0357
5.75E+02,0.0391
5.75E+02,0.0349
5.76E+02,0.0386
5.76E+02,0.0307
5.76E+02,0.032
5.77E+02,0.0288
5.77E+02,0.0367
5.78E+02,0.0439
5.78E+02,0.0352
5.79E+02,0.0391
5.79E+02,0.0349
5.79E+02,0.0294
5.80E+02,0.0412
5.80E+02,0.0291
5.81E+02,0.0367
5.81E+02,0.0336
5.82E+02,0.0394
5.82E+02,0.0346
5.82E+02,0.0328
5.83E+02,0.0315
5.83E+02,0.0362
5.84E+02,0.036
5.84E+02,0.0378
5.84E+02,0.0441
5.85E+02,0.0357
5.85E+02,0.0344
5.86E+02,0.0378
5.86E+02,0.0383
5.87E+02,0.0331
5.87E+02,0.0341
5.87E+02,0.0344
5.88E+02,0.0352
5.88E+02,0.036
5.89E+02,0.036
5.89E+02,0.0344
5.89E+02,0.0381
5.90E+02,0.0386
5.90E+02,0.0373
5.91E+02,0.0383
5.91E+02,0.0449
5.92E+02,0.0383
5.92E+02,0.037
5.92E+02,0.037
5.93E+02,0.0323
5.93E+02,0.0375
5.94E+02,0.037
5.94E+02,0.032
5.95E+02,0.0389
5.95E+02,0.0323
5.95E+02,0.0338
5.96E+02,0.0288
5.96E+02,0.036
5.97E+02,0.0394
5.97E+02,0.0344
5.97E+02,0.0367
5.98E+02,0.0328
5.98E+02,0.0383
5.99E+02,0.0312
5.99E+02,0.0338
6.00E+02,0.0352
6.00E+02,0.0346
6.00E+02,0.0386
6.01E+02,0.0396
6.01E+02,0.0304
6.02E+02,0.0402
6.02E+02,0.0373
6.02E+02,0.036
6.03E+02,0.0439
6.03E+02,0.0415
6.04E+02,0.0336
6.04E+02,0.0381
6.05E+02,0.0336
6.05E+02,0.0349
6.05E+02,0.0402
6.06E+02,0.0462
6.06E+02,0.0383
6.07E+02,0.0309
6.07E+02,0.0346
6.07E+02,0.0352
6.08E+02,0.0367
6.08E+02,0.0375
6.09E+02,0.0375
6.09E+02,0.0315
6.10E+02,0.037
6.10E+02,0.0394
6.10E+02,0.0354
6.11E+02,0.0275
6.11E+02,0.0341
6.12E+02,0.0415
6.12E+02,0.0317
6.12E+02,0.0333
6.13E+02,0.0299
6.13E+02,0.0296
6.14E+02,0.0317
6.14E+02,0.0352
6.15E+02,0.0333
6.15E+02,0.0386
6.15E+02,0.0325
6.16E+02,0.0325
6.16E+02,0.0344
6.17E+02,0.0396
6.17E+02,0.0317
6.17E+02,0.0389
6.18E+02,0.0267
6.18E+02,0.0396
6.19E+02,0.0402
6.19E+02,0.0394
6.20E+02,0.0389
6.20E+02,0.0333
6.20E+02,0.0333
6.21E+02,0.0404
6.21E+02,0.0344
6.22E+02,0.0341
6.22E+02,0.0312
6.22E+02,0.0323
6.23E+02,0.036
6.23E+02,0.0386
6.24E+02,0.0381
6.24E+02,0.0391
6.25E+02,0.0454
6.25E+02,0.042
6.25E+02,0.0418
6.26E+02,0.042
6.26E+02,0.0373
6.27E+02,0.041
6.27E+02,0.0341
6.27E+02,0.036
6.28E+02,0.0362
6.28E+02,0.0333
6.29E+02,0.0357
6.29E+02,0.037
6.29E+02,0.0415
6.30E+02,0.0381
6.30E+02,0.0333
6.31E+02,0.0341
6.31E+02,0.0309
6.32E+02,0.0386
6.32E+02,0.0389
6.32E+02,0.0375
6.33E+02,0.037
6.33E+02,0.0439
6.34E+02,0.0402
6.34E+02,0.0309
6.34E+02,0.0381
6.35E+02,0.0373
6.35E+02,0.036
6.36E+02,0.0336
6.36E+02,0.0338
6.37E+02,0.0378
6.37E+02,0.0317
6.37E+02,0.0373
6.38E+02,0.0404
6.38E+02,0.041
6.39E+02,0.0288
6.39E+02,0.0373
6.39E+02,0.0275
6.40E+02,0.0344
6.40E+02,0.0315
6.41E+02,0.0312
6.41E+02,0.0381
6.41E+02,0.0352
6.42E+02,0.0296
6.42E+02,0.0336
6.43E+02,0.036
6.43E+02,0.0304
6.44E+02,0.0338
6.44E+02,0.0283
6.44E+02,0.0336
6.45E+02,0.0362
6.45E+02,0.0357
6.46E+02,0.0352
6.46E+02,0.0352
6.46E+02,0.0346
6.47E+02,0.0338
6.47E+02,0.0362
6.48E+02,0.0439
6.48E+02,0.0375
6.48E+02,0.0404
6.49E+02,0.0352
6.49E+02,0.037
6.50E+02,0.0338
6.50E+02,0.037
6.51E+02,0.0307
6.51E+02,0.0433
6.51E+02,0.0457
6.52E+02,0.0325
6.52E+02,0.0352
6.53E+02,0.0383
6.53E+02,0.0373
6.53E+02,0.0365
6.54E+02,0.0357
6.54E+02,0.0365
6.55E+02,0.0338
6.55E+02,0.0365
6.55E+02,0.0323
6.56E+02,0.0346
6.56E+02,0.0386
6.57E+02,0.0325
6.57E+02,0.0275
6.57E+02,0.0354
6.58E+02,0.0362
6.58E+02,0.0349
6.59E+02,0.041
6.59E+02,0.0336
6.60E+02,0.0386
6.60E+02,0.0301
6.60E+02,0.0367
6.61E+02,0.032
6.61E+02,0.0389
6.62E+02,0.0354
6.62E+02,0.036
6.62E+02,0.032
6.63E+02,0.0391
6.63E+02,0.0415
6.64E+02,0.0338
6.64E+02,0.0325
6.64E+02,0.0354
6.65E+02,0.0331
6.65E+02,0.0312
6.66E+02,0.041
6.66E+02,0.0415
6.67E+02,0.0386
6.67E+02,0.0433
6.67E+02,0.0375
6.68E+02,0.0389
6.68E+02,0.0381
6.69E+02,0.0391
6.69E+02,0.041
6.69E+02,0.0333
6.70E+02,0.0246
6.70E+02,0.0357
6.71E+02,0.042
6.71E+02,0.0315
6.71E+02,0.0338
6.72E+02,0.0317
6.72E+02,0.0346
6.73E+02,0.0346
6.73E+02,0.032
6.73E+02,0.032
6.74E+02,0.0357
6.74E+02,0.0389
6.75E+02,0.041
6.75E+02,0.0344
6.75E+02,0.0386
6.76E+02,0.0341
6.76E+02,0.0257
6.77E+02,0.0346
6.77E+02,0.0333
6.78E+02,0.0402
6.78E+02,0.0354
6.78E+02,0.0381
6.79E+02,0.0325
6.79E+02,0.0344
6.80E+02,0.0315
6.80E+02,0.0349
6.80E+02,0.0362
6.81E+02,0.0394
6.81E+02,0.0428
6.82E+02,0.0404
6.82E+02,0.0367
6.82E+02,0.0391
6.83E+02,0.0396
6.83E+02,0.0349
6.84E+02,0.0338
6.84E+02,0.0336
6.84E+02,0.042
6.85E+02,0.0381
6.85E+02,0.0331
6.86E+02,0.0378
6.86E+02,0.0394
6.86E+02,0.0399
6.87E+02,0.0399
6.87E+02,0.0433
6.88E+02,0.0352
6.88E+02,0.0291
6.89E+02,0.032
6.89E+02,0.0425
6.89E+02,0.0383
6.90E+02,0.0412
6.90E+02,0.0349
6.91E+02,0.0365
6.91E+02,0.0391
6.91E+02,0.0381
6.92E+02,0.0383
6.92E+02,0.0299
6.93E+02,0.0291
6.93E+02,0.0367
6.93E+02,0.0362
6.94E+02,0.0375
6.94E+02,0.0338
6.95E+02,0.0333
6.95E+02,0.0336
6.95E+02,0.0317
6.96E+02,0.0344
6.96E+02,0.0346
6.97E+02,0.0349
6.97E+02,0.042
6.97E+02,0.0346
6.98E+02,0.0396
6.98E+02,0.0373
6.99E+02,0.0357
6.99E+02,0.0325
6.99E+02,0.0288
7.00E+02,0.0344
7.00E+02,0.0375
7.01E+02,0.0341
7.01E+02,0.0378
7.01E+02,0.0307
7.02E+02,0.036
7.02E+02,0.0301
7.03E+02,0.0375
7.03E+02,0.0309
7.03E+02,0.0267
7.04E+02,0.0336
7.04E+02,0.027
7.05E+02,0.0301
7.05E+02,0.0344
7.06E+02,0.0291
7.06E+02,0.041
7.06E+02,0.0323
7.07E+02,0.036
7.07E+02,0.036
7.08E+02,0.0323
7.08E+02,0.0367
7.08E+02,0.0365
7.09E+02,0.0389
7.09E+02,0.0315
7.10E+02,0.0418
7.10E+02,0.0431
7.10E+02,0.0349
7.11E+02,0.0378
7.11E+02,0.0441
7.12E+02,0.037
7.12E+02,0.0272
7.12E+02,0.0468
7.13E+02,0.0262
7.13E+02,0.0373
7.14E+02,0.0373
7.14E+02,0.0357
7.14E+02,0.0323
7.15E+02,0.0357
7.15E+02,0.0344
7.16E+02,0.0349
7.16E+02,0.0341
7.16E+02,0.0354
7.17E+02,0.0341
7.17E+02,0.0349
7.18E+02,0.0336
7.18E+02,0.0354
7.18E+02,0.0365
7.19E+02,0.0386
7.19E+02,0.0373
7.20E+02,0.0389
7.20E+02,0.0396
7.20E+02,0.0312
7.21E+02,0.0354
7.21E+02,0.0349
7.22E+02,0.032
7.22E+02,0.0349
7.22E+02,0.027
7.23E+02,0.0365
7.23E+02,0.0457
7.24E+02,0.036
7.24E+02,0.0431
7.24E+02,0.0349
7.25E+02,0.0264
7.25E+02,0.0449
7.26E+02,0.0357
7.26E+02,0.0357
7.26E+02,0.0336
7.27E+02,0.0352
7.27E+02,0.0317
7.28E+02,0.0336
7.28E+02,0.0341
7.28E+02,0.0283
7.29E+02,0.0333
7.29E+02,0.0373
7.30E+02,0.0262
7.30E+02,0.0286
7.30E+02,0.0352
7.31E+02,0.036
7.31E+02,0.0349
7.32E+02,0.0341
7.32E+02,0.0346
7.32E+02,0.0317
7.33E+02,0.0389
7.33E+02,0.042
7.34E+02,0.0428
7.34E+02,0.0304
7.34E+02,0.0478
7.35E+02,0.0362
7.35E+02,0.0304
7.36E+02,0.0317
7.36E+02,0.0331
7.36E+02,0.046
7.37E+02,0.0396
7.37E+02,0.0352
7.38E+02,0.041
7.38E+02,0.0396
7.38E+02,0.0312
7.39E+02,0.0338
7.39E+02,0.0407
7.40E+02,0.0352
7.40E+02,0.0407
7.40E+02,0.0259
7.41E+02,0.0288
7.41E+02,0.0386
7.42E+02,0.0328
7.42E+02,0.0428
7.42E+02,0.0338
7.43E+02,0.0396
7.43E+02,0.0328
7.44E+02,0.0341
7.44E+02,0.0354
7.44E+02,0.0357
7.45E+02,0.0333
7.45E+02,0.0315
7.46E+02,0.0317
7.46E+02,0.0354
7.46E+02,0.0399
7.47E+02,0.0386
7.47E+02,0.0373
7.48E+02,0.0394
7.48E+02,0.0449
7.48E+02,0.032
7.49E+02,0.0381
7.49E+02,0.0375
7.50E+02,0.0333
7.50E+02,0.0312
7.50E+02,0.036
7.51E+02,0.0436
7.51E+02,0.0349
7.52E+02,0.0349
7.52E+02,0.0338
7.52E+02,0.0357
7.53E+02,0.0354
7.53E+02,0.0309
7.54E+02,0.0288
7.54E+02,0.0367
7.54E+02,0.0288
7.55E+02,0.0323
7.55E+02,0.0323
7.55E+02,0.0317
7.56E+02,0.0373
7.56E+02,0.0349
7.57E+02,0.0312
7.57E+02,0.0418
7.57E+02,0.0367
7.58E+02,0.0354
7.58E+02,0.0341
7.59E+02,0.037
7.59E+02,0.036
7.59E+02,0.0404
7.60E+02,0.0296
7.60E+02,0.0344
7.61E+02,0.0325
7.61E+02,0.0299
7.61E+02,0.0243
7.62E+02,0.0304
7.62E+02,0.0286
7.63E+02,0.0315
7.63E+02,0.0375
7.63E+02,0.0394
7.64E+02,0.0357
7.64E+02,0.041
7.65E+02,0.0394
7.65E+02,0.0307
7.65E+02,0.0391
7.66E+02,0.0373
7.66E+02,0.0341
7.67E+02,0.028
7.67E+02,0.0373
7.67E+02,0.0341
7.68E+02,0.0349
7.68E+02,0.0354
7.69E+02,0.0365
7.69E+02,0.036
7.69E+02,0.0381
7.70E+02,0.0357
7.70E+02,0.037
7.71E+02,0.027
7.71E+02,0.0367
7.71E+02,0.0278
7.72E+02,0.0346
7.72E+02,0.0346
7.72E+02,0.0365
7.73E+02,0.0378
7.73E+02,0.0344
7.74E+02,0.0383
7.74E+02,0.0257
7.74E+02,0.0396
7.75E+02,0.0315
7.75E+02,0.0328
7.76E+02,0.0354
7.76E+02,0.0386
7.76E+02,0.0391
7.77E+02,0.032
7.77E+02,0.0404
7.78E+02,0.0344
7.78E+02,0.036
7.78E+02,0.0389
7.79E+02,0.0312
7.79E+02,0.037
7.80E+02,0.027
7.80E+02,0.041
7.80E+02,0.041
7.81E+02,0.0312
7.81E+02,0.0373
7.82E+02,0.0365
7.82E+02,0.0336
7.82E+02,0.032
7.83E+02,0.037
7.83E+02,0.0344
7.83E+02,0.0254
7.84E+02,0.0304
7.84E+02,0.0344
7.85E+02,0.0367
7.85E+02,0.0354
7.85E+02,0.0394
7.86E+02,0.0331
7.86E+02,0.0444
7.87E+02,0.0367
7.87E+02,0.0296
7.87E+02,0.028
7.88E+02,0.0354
7.88E+02,0.0325
7.89E+02,0.0346
7.89E+02,0.0425
7.89E+02,0.0365
7.90E+02,0.0381
7.90E+02,0.0441
7.91E+02,0.0357
7.91E+02,0.0312
7.91E+02,0.0412
7.92E+02,0.0378
7.92E+02,0.0367
7.92E+02,0.0341
7.93E+02,0.0333
7.93E+02,0.032
7.94E+02,0.0346
7.94E+02,0.0352
7.94E+02,0.0381
7.95E+02,0.037
7.95E+02,0.0381
7.96E+02,0.0325
7.96E+02,0.0391
7.96E+02,0.0399
7.97E+02,0.0425
7.97E+02,0.0346
7.98E+02,0.032
7.98E+02,0.0325
7.98E+02,0.0341
7.99E+02,0.0507
7.99E+02,0.0283
8.00E+02,0.0286
8.00E+02,0.0352
8.00E+02,0.0396
8.01E+02,0.0325
8.01E+02,0.0315
8.01E+02,0.0378
8.02E+02,0.037
8.02E+02,0.0286
8.03E+02,0.0425
8.03E+02,0.0304
8.03E+02,0.0404
8.04E+02,0.0304
8.04E+02,0.0352
8.05E+02,0.0333
8.05E+02,0.0341
8.05E+02,0.0338
8.06E+02,0.0362
8.06E+02,0.0338
8.07E+02,0.0338
8.07E+02,0.037
8.07E+02,0.0357
8.08E+02,0.0386
8.08E+02,0.0399
8.08E+02,0.0272
8.09E+02,0.0346
8.09E+02,0.0415
8.10E+02,0.0264
8.10E+02,0.0325
8.10E+02,0.0373
8.11E+02,0.0362
8.11E+02,0.036
8.12E+02,0.0362
8.12E+02,0.0378
8.12E+02,0.0317
8.13E+02,0.0317
8.13E+02,0.0362
8.14E+02,0.0338
8.14E+02,0.0357
8.14E+02,0.0309
8.15E+02,0.0336
8.15E+02,0.0386
8.15E+02,0.0357
8.16E+02,0.0278
8.16E+02,0.0349
8.17E+02,0.032
8.17E+02,0.0312
8.17E+02,0.0336
8.18E+02,0.036
8.18E+02,0.0331
8.19E+02,0.0396
8.19E+02,0.0365
8.19E+02,0.0378
8.20E+02,0.0352
8.20E+02,0.0344
8.20E+02,0.0286
8.21E+02,0.0333
8.21E+02,0.0378
8.22E+02,0.036
8.22E+02,0.0354
8.22E+02,0.0299
8.23E+02,0.0344
8.23E+02,0.0362
8.24E+02,0.0251
8.24E+02,0.0412
8.24E+02,0.0391
8.25E+02,0.0402
8.25E+02,0.0307
8.25E+02,0.0383
8.26E+02,0.0383
8.26E+02,0.0283
8.27E+02,0.0352
8.27E+02,0.0389
8.27E+02,0.0317
8.28E+02,0.0381
8.28E+02,0.0204
8.29E+02,0.0323
8.29E+02,0.0257
8.29E+02,0.032
8.30E+02,0.0357
8.30E+02,0.0375
8.31E+02,0.0407
8.31E+02,0.037
8.31E+02,0.0381
8.32E+02,0.0309
8.32E+02,0.0349
8.32E+02,0.0349
8.33E+02,0.0378
8.33E+02,0.0373
8.34E+02,0.0449
8.34E+02,0.0283
8.34E+02,0.0441
8.35E+02,0.0299
8.35E+02,0.0354
8.36E+02,0.0402
8.36E+02,0.0331
8.36E+02,0.0367
8.37E+02,0.036
8.37E+02,0.0433
8.37E+02,0.0367
8.38E+02,0.0481
8.38E+02,0.0431
8.39E+02,0.0299
8.39E+02,0.0404
8.39E+02,0.0331
8.40E+02,0.0412
8.40E+02,0.032
8.40E+02,0.0375
8.41E+02,0.028
8.41E+02,0.0275
8.42E+02,0.0315
8.42E+02,0.0391
8.42E+02,0.0365
8.43E+02,0.0317
8.43E+02,0.0288
8.44E+02,0.041
8.44E+02,0.0352
8.44E+02,0.0344
8.45E+02,0.0336
8.45E+02,0.0407
8.45E+02,0.0346
8.46E+02,0.0301
8.46E+02,0.0317
8.47E+02,0.0362
8.47E+02,0.0349
8.47E+02,0.0299
8.48E+02,0.036
8.48E+02,0.041
8.49E+02,0.0312
8.49E+02,0.0383
8.49E+02,0.0349
8.50E+02,0.0378
8.50E+02,0.0304
8.50E+02,0.0391
8.51E+02,0.0307
8.51E+02,0.0352
8.52E+02,0.0367
8.52E+02,0.0367
8.52E+02,0.0315
8.53E+02,0.0373
8.53E+02,0.0407
8.53E+02,0.0288
8.54E+02,0.0315
8.54E+02,0.0336
8.55E+02,0.0254
8.55E+02,0.0264
8.55E+02,0.0391
8.56E+02,0.0389
8.56E+02,0.0357
8.57E+02,0.032
8.57E+02,0.0394
8.57E+02,0.0304
8.58E+02,0.0341
8.58E+02,0.0452
8.58E+02,0.0317
8.59E+02,0.028
8.59E+02,0.0341
8.60E+02,0.0349
8.60E+02,0.0425
8.60E+02,0.0373
8.61E+02,0.037
8.61E+02,0.0349
8.61E+02,0.0367
8.62E+02,0.0286
8.62E+02,0.036
8.63E+02,0.0357
8.63E+02,0.0336
8.63E+02,0.0341
8.64E+02,0.0394
8.64E+02,0.0331
8.65E+02,0.0352
8.65E+02,0.0336
8.65E+02,0.0338
8.66E+02,0.0333
8.66E+02,0.0312
8.66E+02,0.0328
8.67E+02,0.0309
8.67E+02,0.0404
8.68E+02,0.0349
8.68E+02,0.0407
8.68E+02,0.0288
8.69E+02,0.0291
8.69E+02,0.0301
8.69E+02,0.0336
8.70E+02,0.0338
8.70E+02,0.0375
8.71E+02,0.028
8.71E+02,0.0333
8.71E+02,0.0373
8.72E+02,0.0378
8.72E+02,0.0307
8.72E+02,0.0317
8.73E+02,0.0312
8.73E+02,0.0402
8.74E+02,0.0336
8.74E+02,0.0267
8.74E+02,0.0378
8.75E+02,0.028
8.75E+02,0.0362
8.76E+02,0.0299
8.76E+02,0.0418
8.76E+02,0.0299
8.77E+02,0.0291
8.77E+02,0.0381
8.77E+02,0.0386
8.78E+02,0.0402
8.78E+02,0.036
8.79E+02,0.0291
8.79E+02,0.0304
8.79E+02,0.0338
8.80E+02,0.0309
8.80E+02,0.0378
8.80E+02,0.036
8.81E+02,0.0452
8.81E+02,0.0315
8.82E+02,0.0449
8.82E+02,0.0404
8.82E+02,0.0383
8.83E+02,0.0341
8.83E+02,0.0304
8.83E+02,0.0227
8.84E+02,0.0296
8.84E+02,0.0375
8.85E+02,0.0407
8.85E+02,0.032
8.85E+02,0.0275
8.86E+02,0.0404
8.86E+02,0.0338
8.86E+02,0.0396
8.87E+02,0.0354
8.87E+02,0.0309
8.88E+02,0.0301
8.88E+02,0.0352
8.88E+02,0.0375
8.89E+02,0.0312
8.89E+02,0.037
8.89E+02,0.0301
8.90E+02,0.0349
8.90E+02,0.0317
8.91E+02,0.0317
8.91E+02,0.0352
8.91E+02,0.036
8.92E+02,0.0341
8.92E+02,0.0378
8.92E+02,0.0346
8.93E+02,0.0354
8.93E+02,0.0399
8.94E+02,0.0328
8.94E+02,0.0468
8.94E+02,0.0399
8.95E+02,0.0296
8.95E+02,0.0309
8.95E+02,0.0315
8.96E+02,0.0333
8.96E+02,0.0352
8.97E+02,0.0362
8.97E+02,0.0375
8.97E+02,0.0346
8.98E+02,0.0323
8.98E+02,0.0317
8.98E+02,0.0344
8.99E+02,0.0328
8.99E+02,0.0378
9.00E+02,0.0344
9.00E+02,0.0389
9.00E+02,0.0338
9.01E+02,0.0362
9.01E+02,0.0415
9.01E+02,0.0291
9.02E+02,0.0373
9.02E+02,0.0341
9.03E+02,0.0323
9.03E+02,0.0386
9.03E+02,0.0375
9.04E+02,0.0333
9.04E+02,0.0391
9.04E+02,0.0365
9.05E+02,0.0381
9.05E+02,0.0301
9.06E+02,0.0402
9.06E+02,0.0331
9.06E+02,0.037
9.07E+02,0.0357
9.07E+02,0.0338
9.07E+02,0.0299
9.08E+02,0.0291
9.08E+02,0.0288
9.09E+02,0.0436
9.09E+02,0.0373
9.09E+02,0.0275
9.10E+02,0.036
9.10E+02,0.0301
9.10E+02,0.0333
9.11E+02,0.0354
9.11E+02,0.0373
9.12E+02,0.0267
9.12E+02,0.0323
9.12E+02,0.0465
9.13E+02,0.028
9.13E+02,0.0381
9.13E+02,0.0317
9.14E+02,0.0307
9.14E+02,0.041
9.14E+02,0.036
9.15E+02,0.0362
9.15E+02,0.0399
9.16E+02,0.0315
9.16E+02,0.0357
9.16E+02,0.0378
9.17E+02,0.0386
9.17E+02,0.0299
9.17E+02,0.0325
9.18E+02,0.0399
9.18E+02,0.0383
9.19E+02,0.0381
9.19E+02,0.037
9.19E+02,0.0352
9.20E+02,0.032
9.20E+02,0.0365
9.20E+02,0.041
9.21E+02,0.0373
9.21E+02,0.0317
9.22E+02,0.0365
9.22E+02,0.036
9.22E+02,0.0288
9.23E+02,0.0291
9.23E+02,0.0378
9.23E+02,0.027
9.24E+02,0.0362
9.24E+02,0.037
9.24E+02,0.0365
9.25E+02,0.0294
9.25E+02,0.0402
9.26E+02,0.0312
9.26E+02,0.0399
9.26E+02,0.0354
9.27E+02,0.0309
9.27E+02,0.0373
9.27E+02,0.0365
9.28E+02,0.042
9.28E+02,0.0243
9.29E+02,0.0349
9.29E+02,0.0354
9.29E+02,0.0338
9.30E+02,0.0294
9.30E+02,0.0304
9.30E+02,0.0336
9.31E+02,0.0354
9.31E+02,0.0404
9.32E+02,0.0373
9.32E+02,0.0309
9.32E+02,0.0309
9.33E+02,0.0375
9.33E+02,0.0328
9.33E+02,0.0354
9.34E+02,0.0365
9.34E+02,0.028
9.34E+02,0.0349
9.35E+02,0.0352
9.35E+02,0.0296
9.36E+02,0.0312
9.36E+02,0.0286
9.36E+02,0.0283
9.37E+02,0.0338
9.37E+02,0.0315
9.37E+02,0.0354
9.38E+02,0.032
9.38E+02,0.0389
9.38E+02,0.0352
9.39E+02,0.0336
9.39E+02,0.0328
9.40E+02,0.0454
9.40E+02,0.0362
9.40E+02,0.0386
9.41E+02,0.0352
9.41E+02,0.0336
9.41E+02,0.0362
9.42E+02,0.0354
9.42E+02,0.0391
9.43E+02,0.0317
9.43E+02,0.0383
9.43E+02,0.036
9.44E+02,0.0275
9.44E+02,0.0336
9.44E+02,0.0383
9.45E+02,0.0296
9.45E+02,0.0383
9.45E+02,0.0389
9.46E+02,0.0336
9.46E+02,0.028
9.47E+02,0.0373
9.47E+02,0.0338
9.47E+02,0.0331
9.48E+02,0.0346
9.48E+02,0.0381
9.48E+02,0.0296
9.49E+02,0.0367
9.49E+02,0.036
9.49E+02,0.0288
9.50E+02,0.0362
9.50E+02,0.0383
9.51E+02,0.0389
9.51E+02,0.0341
9.51E+02,0.0333
9.52E+02,0.0344
9.52E+02,0.0338
9.52E+02,0.0272
9.53E+02,0.0354
9.53E+02,0.0402
9.54E+02,0.0423
9.54E+02,0.0352
9.54E+02,0.0341
9.55E+02,0.0296
9.55E+02,0.0309
9.55E+02,0.0341
9.56E+02,0.0412
9.56E+02,0.0365
9.56E+02,0.0378
9.57E+02,0.0375
9.57E+02,0.0323
9.58E+02,0.0336
9.58E+02,0.0296
9.58E+02,0.0357
9.59E+02,0.0328
9.59E+02,0.0365
9.59E+02,0.0373
9.60E+02,0.0336
9.60E+02,0.0346
9.60E+02,0.0315
9.61E+02,0.0396
9.61E+02,0.0333
9.62E+02,0.0331
9.62E+02,0.0404
9.62E+02,0.0346
9.63E+02,0.0354
9.63E+02,0.0312
9.63E+02,0.0259
9.64E+02,0.0301
9.64E+02,0.0278
9.64E+02,0.0338
9.65E+02,0.0444
9.65E+02,0.0354
9.66E+02,0.0344
9.66E+02,0.0349
9.66E+02,0.0336
9.67E+02,0.0309
9.67E+02,0.0307
9.67E+02,0.036
9.68E+02,0.0331
9.68E+02,0.0325
9.68E+02,0.0328
9.69E+02,0.0315
9.69E+02,0.0346
9.70E+02,0.0307
9.70E+02,0.0331
9.70E+02,0.0315
9.71E+02,0.0309
9.71E+02,0.0288
9.71E+02,0.0367
9.72E+02,0.0323
9.72E+02,0.0257
9.72E+02,0.0338
9.73E+02,0.0402
9.73E+02,0.0299
9.73E+02,0.037
9.74E+02,0.0333
9.74E+02,0.0357
9.75E+02,0.0278
9.75E+02,0.0418
9.75E+02,0.0383
9.76E+02,0.0312
9.76E+02,0.0331
9.76E+02,0.0333
9.77E+02,0.0307
9.77E+02,0.027
9.77E+02,0.0333
9.78E+02,0.0338
9.78E+02,0.0407
9.79E+02,0.0294
9.79E+02,0.0323
9.79E+02,0.0259
9.80E+02,0.0331
9.80E+02,0.0365
9.80E+02,0.0299
9.81E+02,0.0307
9.81E+02,0.0344
9.81E+02,0.0386
9.82E+02,0.0328
9.82E+02,0.0317
9.82E+02,0.0325
9.83E+02,0.0312
9.83E+02,0.0349
9.84E+02,0.032
9.84E+02,0.0362
9.84E+02,0.0288
9.85E+02,0.0338
9.85E+02,0.0383
9.85E+02,0.0333
9.86E+02,0.0428
9.86E+02,0.0344
9.86E+02,0.0336
9.87E+02,0.036
9.87E+02,0.0333
9.88E+02,0.0307
9.88E+02,0.0344
9.88E+02,0.0267
9.89E+02,0.0346
9.89E+02,0.0365
9.89E+02,0.0331
9.90E+02,0.0291
9.90E+02,0.0286
9.90E+02,0.0325
9.91E+02,0.0328
9.91E+02,0.0396
9.91E+02,0.0423
9.92E+02,0.0383
9.92E+02,0.0315
9.93E+02,0.0315
9.93E+02,0.0449
9.93E+02,0.0362
9.94E+02,0.0349
9.94E+02,0.0352
9.94E+02,0.0304
9.95E+02,0.036
9.95E+02,0.0375
9.95E+02,0.0373
9.96E+02,0.0254
9.96E+02,0.0331
9.96E+02,0.0394
9.97E+02,0.0396
9.97E+02,0.0344
9.98E+02,0.0346
9.98E+02,0.0317
9.98E+02,0.0317
9.99E+02,0.0317
9.99E+02,0.0328
9.99E+02,0.0299
1.00E+03,0.0272
1.00E+03,0.042
1.00E+03,0.0373
1.00E+03,0.0341
1.00E+03,0.036
1.00E+03,0.0373
1.00E+03,0.0415
1.00E+03,0.0307
1.00E+03,0.0344
1.00E+03,0.0362
1.00E+03,0.036
1.00E+03,0.0344
1.00E+03,0.0373
1.00E+03,0.0365
1.00E+03,0.0328
1.01E+03,0.0288
1.01E+03,0.0391
1.01E+03,0.036
1.01E+03,0.0349
1.01E+03,0.0362
1.01E+03,0.0323
1.01E+03,0.0294
1.01E+03,0.0362
1.01E+03,0.0352
1.01E+03,0.0386
1.01E+03,0.0381
1.01E+03,0.0288
1.01E+03,0.0365
1.01E+03,0.0333
1.01E+03,0.0386
1.01E+03,0.0299
1.01E+03,0.028
1.01E+03,0.0323
1.01E+03,0.0375
1.01E+03,0.0354
1.01E+03,0.0275
1.01E+03,0.0381
1.01E+03,0.0344
1.01E+03,0.036
1.01E+03,0.0344
1.01E+03,0.0389
1.01E+03,0.0367
1.01E+03,0.0402
1.01E+03,0.0394
1.02E+03,0.0333
1.02E+03,0.0267
1.02E+03,0.0367
1.02E+03,0.0294
1.02E+03,0.0333
1.02E+03,0.0344
1.02E+03,0.0286
1.02E+03,0.0352
1.02E+03,0.0309
1.02E+03,0.0301
1.02E+03,0.0291
1.02E+03,0.0383
1.02E+03,0.0375
1.02E+03,0.037
1.02E+03,0.037
1.02E+03,0.0375
1.02E+03,0.0291
1.02E+03,0.0349
1.02E+03,0.0367
1.02E+03,0.0352
1.02E+03,0.0402
1.02E+03,0.0349
1.02E+03,0.0315
1.02E+03,0.0367
1.02E+03,0.0349
1.02E+03,0.0357
1.02E+03,0.032
1.02E+03,0.0336
1.03E+03,0.0288
1.03E+03,0.0394
1.03E+03,0.0331
1.03E+03,0.0328
1.03E+03,0.0404
1.03E+03,0.0354
1.03E+03,0.0375
1.03E+03,0.0381
1.03E+03,0.0381
1.03E+03,0.0381